Longueur d'onde (nm),Tension blanc (Volt)
400.0,6.72e-05
401.3461,6.72e-05
402.6922,-8.86e-05
404.0383,6.72e-05
405.3844,6.72e-05
406.7305,-1.07e-05
408.0766,6.72e-05
409.4227,6.72e-05
410.7688,6.72e-05
412.1149,6.72e-05
413.461,0.0003011
414.8071,0.0001452
416.1532,0.0002231
417.4993,0.0002231
418.8454,0.0001452
420.1915,0.0001452
421.5376,0.0002231
422.88370000000003,0.0001452
424.2298,0.0001452
425.5759,0.0001452
426.922,0.0001452
428.2681,0.0001452
429.61420000000004,0.0001452
430.9603,6.72e-05
432.3064,0.0001452
433.65250000000003,0.0001452
434.9986,6.72e-05
436.34470000000005,6.72e-05
437.6908,0.0002231
439.0369,6.72e-05
440.38300000000004,-1.07e-05
441.7291,6.72e-05
443.0752,-1.07e-05
444.42130000000003,6.72e-05
445.7674,-1.07e-05
447.1135,6.72e-05
448.4596,-1.07e-05
449.8057,-8.86e-05
451.1518,-1.07e-05
452.4979,-8.86e-05
453.844,-8.86e-05
455.1901,-0.0001666
456.5362,-0.0002445
457.8823,-0.0002445
459.22839999999997,-0.0002445
460.57449999999994,-0.0005563
461.9206,-0.0007122
463.26669999999996,-0.0007901
464.6128,-0.0007901
465.95889999999997,-0.000946
467.30499999999995,-0.000868
468.65109999999993,-0.000946
469.99719999999996,-0.0010239
471.34329999999994,-0.0011798
472.6894,-0.0012577
474.03549999999996,-0.0012577
475.38159999999993,-0.0014136
476.7276999999999,-0.0014915
478.07379999999995,-0.0016474
479.4198999999999,-0.0017254
480.76599999999996,-0.0018812
482.11209999999994,-0.0021151
483.4582,-0.002193
484.80429999999996,-0.0022709
486.1504,-0.0024268
487.49649999999997,-0.0026606
488.8426,-0.0028165
490.1887,-0.0029724
491.5348,-0.0032062
492.8809,-0.00344
494.227,-0.003518
495.5731,-0.0038297
496.91920000000005,-0.0040635
498.2653,-0.0042974
499.6114,-0.0045311
500.95750000000004,-0.0048429
502.3036000000001,-0.0050768
503.64970000000005,-0.0053885
504.99580000000003,-0.0056223
506.34190000000007,-0.0058562
507.68800000000005,-0.0060899
509.0341000000001,-0.0064017
510.38020000000006,-0.0066355
511.7263000000001,-0.0069473
513.0724000000001,-0.0071811
514.4185000000001,-0.0074928
515.7646000000001,-0.0077267
517.1107000000001,-0.0080384
518.4568000000002,-0.0081943
519.8029000000001,-0.0085061
521.1490000000001,-0.0087399
522.4951000000001,-0.0090516
523.8412000000001,-0.0093634
525.1873000000002,-0.0095972
526.5334000000001,-0.009909
527.8795000000001,-0.0101427
529.2256000000002,-0.0103766
530.5717000000002,-0.0103766
531.9178000000002,-0.0104545
533.2639000000001,-0.0106884
534.6100000000001,-0.0110001
535.9561000000002,-0.0113118
537.3022000000002,-0.0117795
538.6483000000002,-0.012325
539.9944000000002,-0.0129486
541.3405000000002,-0.013728
542.6866000000002,-0.0146632
544.0327000000002,-0.0155206
545.3788000000002,-0.0165338
546.7249000000002,-0.0176249
548.0710000000003,-0.0186381
549.4171000000002,-0.0194954
550.7632000000002,-0.0204307
552.1093000000003,-0.0212101
553.4554000000003,-0.0219116
554.8015000000003,-0.0225351
556.1476000000002,-0.0230806
557.4937000000002,-0.0232365
558.8398000000003,-0.0236262
560.1859000000003,-0.0240159
561.5320000000003,-0.0244056
562.8781000000004,-0.0248733
564.2242000000003,-0.025107
565.5703000000003,-0.0254188
566.9164000000003,-0.0258085
568.2625000000003,-0.0260423
569.6086000000003,-0.0263541
570.9547000000003,-0.0265879
572.3008000000003,-0.0268996
573.6469000000003,-0.0271335
574.9930000000004,-0.0272893
576.3391000000004,-0.0275232
577.6852000000003,-0.027679
579.0313000000003,-0.0274452
580.3774000000003,-0.027679
581.7235000000004,-0.0282246
583.0696000000004,-0.0286922
584.4157000000004,-0.0292378
585.7618000000004,-0.0297055
587.1079000000004,-0.0300952
588.4540000000004,-0.0304849
589.8001000000004,-0.0309525
591.1462000000004,-0.031498
592.4923000000003,-0.0317318
593.8384000000004,-0.0321995
595.1845000000004,-0.0324333
596.5306000000004,-0.032823
597.8767000000005,-0.0332127
599.2228000000005,-0.0336024
600.5689000000004,-0.0338362
601.9150000000004,-0.034148
603.2611000000004,-0.0325112
604.6072000000005,-0.0307186
605.9533000000005,-0.0301731
607.2994000000004,-0.0303289
608.6455000000005,-0.0305628
609.9916000000005,-0.0307966
611.3377000000005,-0.0311083
612.6838000000005,-0.0312642
614.0299000000005,-0.031576
615.3760000000005,-0.0318877
616.7221000000005,-0.0321215
618.0682000000005,-0.0322774
619.4143000000005,-0.0325112
620.7604000000006,-0.0325892
622.1065000000006,-0.0327451
623.4526000000005,-0.032823
624.7987000000005,-0.0330568
626.1448000000005,-0.0329789
627.4909000000006,-0.0336024
628.8370000000006,-0.0377331
630.1831000000005,-0.0389802
631.5292000000006,-0.0385125
632.8753000000006,-0.0370317
634.2214000000006,-0.0359406
635.5675000000006,-0.0368758
636.9136000000005,-0.0388243
638.2597000000006,-0.0419419
639.6058000000006,-0.0463844
640.9519000000006,-0.0518401
642.2980000000007,-0.0572958
643.6441000000007,-0.0619721
644.9902000000006,-0.0654015
646.3363000000006,-0.0674279
647.6824000000006,-0.0682073
649.0285000000006,-0.0681294
650.3746000000007,-0.0685191
651.7207000000006,-0.0668043
653.0668000000006,-0.0649338
654.4129000000007,-0.0636089
655.7590000000007,-0.0629854
657.1051000000007,-0.062206
658.4512000000007,-0.0615045
659.7973000000006,-0.060959
661.1434000000006,-0.0602575
662.4895000000007,-0.0595561
663.8356000000007,-0.0590105
665.1817000000008,-0.0584649
666.5278000000008,-0.0579193
667.8739000000007,-0.0573738
