Longueur d'onde (nm),Tension échantillon (Volt)
400.0,0.0006128
401.3461,0.0005349
402.6922,0.0005349
404.0383,0.0005349
405.3844,0.0006128
406.7305,0.0004569
408.0766,0.0005349
409.4227,0.0005349
410.7688,0.0005349
412.1149,0.0005349
413.461,0.0006128
414.8071,0.0005349
416.1532,0.0006128
417.4993,0.0006128
418.8454,0.0004569
420.1915,0.0005349
421.5376,0.0006128
422.88370000000003,0.0006908
424.2298,0.0007687
425.5759,0.0006128
426.922,0.0006128
428.2681,0.0006128
429.61420000000004,0.0006128
430.9603,0.0006128
432.3064,0.0006128
433.65250000000003,0.0006128
434.9986,0.0006128
436.34470000000005,0.0006128
437.6908,0.0006128
439.0369,0.0005349
440.38300000000004,0.0005349
441.7291,0.0005349
443.0752,0.0005349
444.42130000000003,0.0005349
445.7674,0.0004569
447.1135,0.0004569
448.4596,0.000379
449.8057,0.0004569
451.1518,0.000379
452.4979,0.000379
453.844,0.0003011
455.1901,0.0003011
456.5362,0.0003011
457.8823,0.0002231
459.22839999999997,0.0002231
460.57449999999994,-8.86e-05
461.9206,-0.0001666
463.26669999999996,-0.0002445
464.6128,-0.0003225
465.95889999999997,-0.0003225
467.30499999999995,-0.0004004
468.65109999999993,-0.0004004
469.99719999999996,-0.0004783
471.34329999999994,-0.0005563
472.6894,-0.0007122
474.03549999999996,-0.0007901
475.38159999999993,-0.000868
476.7276999999999,-0.000946
478.07379999999995,-0.0010239
479.4198999999999,-0.0011798
480.76599999999996,-0.0013357
482.11209999999994,-0.0014136
483.4582,-0.0014915
484.80429999999996,-0.0015695
486.1504,-0.0018033
487.49649999999997,-0.0019592
488.8426,-0.002193
490.1887,-0.0024268
491.5348,-0.0025827
492.8809,-0.0028165
494.227,-0.0030503
495.5731,-0.0032842
496.91920000000005,-0.003518
498.2653,-0.0037518
499.6114,-0.0039856
500.95750000000004,-0.0042194
502.3036000000001,-0.0044532
503.64970000000005,-0.004765
504.99580000000003,-0.0049988
506.34190000000007,-0.0052326
507.68800000000005,-0.0055444
509.0341000000001,-0.0057782
510.38020000000006,-0.006012
511.7263000000001,-0.0063238
513.0724000000001,-0.0064796
514.4185000000001,-0.0067914
515.7646000000001,-0.0071031
517.1107000000001,-0.007337
518.4568000000002,-0.0075708
519.8029000000001,-0.0078046
521.1490000000001,-0.0081164
522.4951000000001,-0.0082722
523.8412000000001,-0.008584
525.1873000000002,-0.0088178
526.5334000000001,-0.0089737
527.8795000000001,-0.0092075
529.2256000000002,-0.0094413
530.5717000000002,-0.0095193
531.9178000000002,-0.0095193
533.2639000000001,-0.009753
534.6100000000001,-0.009831
535.9561000000002,-0.0102207
537.3022000000002,-0.0106104
538.6483000000002,-0.0110001
539.9944000000002,-0.0114678
541.3405000000002,-0.0120912
542.6866000000002,-0.0127927
544.0327000000002,-0.0134941
545.3788000000002,-0.0143515
546.7249000000002,-0.0151309
548.0710000000003,-0.0159103
549.4171000000002,-0.0167676
550.7632000000002,-0.0172352
552.1093000000003,-0.0178587
553.4554000000003,-0.0183263
554.8015000000003,-0.018794
556.1476000000002,-0.0190278
557.4937000000002,-0.0191837
558.8398000000003,-0.0191837
560.1859000000003,-0.0193396
561.5320000000003,-0.0195734
562.8781000000004,-0.0197293
564.2242000000003,-0.0198072
565.5703000000003,-0.0198851
566.9164000000003,-0.0198851
568.2625000000003,-0.0198851
569.6086000000003,-0.0198851
570.9547000000003,-0.0197293
572.3008000000003,-0.0197293
573.6469000000003,-0.0196513
574.9930000000004,-0.0194954
576.3391000000004,-0.0194175
577.6852000000003,-0.0193396
579.0313000000003,-0.0189499
580.3774000000003,-0.0188719
581.7235000000004,-0.0189499
583.0696000000004,-0.0189499
584.4157000000004,-0.018794
585.7618000000004,-0.018794
587.1079000000004,-0.0188719
588.4540000000004,-0.018794
589.8001000000004,-0.0188719
591.1462000000004,-0.0185602
592.4923000000003,-0.0180146
593.8384000000004,-0.0177029
595.1845000000004,-0.0173911
596.5306000000004,-0.0170014
597.8767000000005,-0.0165338
599.2228000000005,-0.016222
600.5689000000004,-0.0158323
601.9150000000004,-0.0157544
603.2611000000004,-0.0147412
604.6072000000005,-0.0138838
605.9533000000005,-0.0135721
607.2994000000004,-0.0141956
608.6455000000005,-0.0148191
609.9916000000005,-0.0154426
611.3377000000005,-0.0170014
612.6838000000005,-0.0181705
614.0299000000005,-0.0195734
615.3760000000005,-0.0211322
616.7221000000005,-0.0227689
618.0682000000005,-0.0242497
619.4143000000005,-0.0256526
620.7604000000006,-0.0268217
622.1065000000006,-0.0279908
623.4526000000005,-0.0289261
624.7987000000005,-0.0297055
626.1448000000005,-0.030251
627.4909000000006,-0.0312642
628.8370000000006,-0.0354729
630.1831000000005,-0.0372655
631.5292000000006,-0.0371096
632.8753000000006,-0.0360965
634.2214000000006,-0.0350053
635.5675000000006,-0.0359406
636.9136000000005,-0.037889
638.2597000000006,-0.0409287
639.6058000000006,-0.0452932
640.9519000000006,-0.0507489
642.2980000000007,-0.0562826
643.6441000000007,-0.0610369
644.9902000000006,-0.0647
646.3363000000006,-0.0669603
647.6824000000006,-0.0679734
649.0285000000006,-0.0681294
650.3746000000007,-0.0683631
651.7207000000006,-0.0668823
653.0668000000006,-0.0650118
654.4129000000007,-0.0636868
655.7590000000007,-0.0630633
657.1051000000007,-0.0623618
658.4512000000007,-0.0616604
659.7973000000006,-0.060959
661.1434000000006,-0.0603355
662.4895000000007,-0.0598678
663.8356000000007,-0.0592443
665.1817000000008,-0.0586208
666.5278000000008,-0.0579973
667.8739000000007,-0.0575296
